# ------------------------------------------------------------------------
# NASA-GSFC Planetary Spectrum Generator (PSG, Villanueva et al. 2015)
# Atmospheric transmittance spectrum synthesized with PUMAS (Villanueva et al. 2016, Smith et al. 2009, Edwards 1992)
# Synthesized on Tue Jul 24 07:38:22 2018
# Molecular abundance atmprofile: Earth at 4084 m, NASA/MERRA 2017/01/02
# Molecules considered: H2O,CO2,O3,O2
# Molecular sources: HIT[1],HIT[2],HIT[3],HIT[7]
# Molecular abundances: 50,1,1,1
# Molecular abundance units: ppm,scl,scl,scl
# ------------------------------------------------------------------------
# Spectral unit: Frequency[GHz]
# Wave/freq Total H2O CO2 O3 O2
1.000000000e+03  0.10357  0.10477  1.00000  0.99390  0.99428
9.990000000e+02  0.07218  0.07367  1.00000  0.99529  0.98417
9.980000000e+02  0.04579  0.04625  1.00000  0.99382  0.99608
9.970000000e+02  0.02410  0.02426  1.00000  0.99569  0.99761
9.960000000e+02  0.00877  0.00889  1.00000  0.98440  0.99799
9.950000000e+02  0.00105  0.00110  1.00000  0.96541  0.99816
9.940000000e+02  0.00024  0.00031  1.00000  0.84657  0.99826
9.930000000e+02  0.00003  0.00003  1.00000  0.94877  0.99832
9.920000000e+02 -0.00000 -0.00000  1.00000  0.98710  0.99837
9.910000000e+02 -0.00000 -0.00000  1.00000  0.99717  0.99841
9.900000000e+02  0.00000  0.00000  1.00000  0.99798  0.99844
9.890000000e+02  0.00000  0.00000  1.00000  0.99814  0.99847
9.880000000e+02  0.00000  0.00000  1.00000  0.99517  0.99850
9.870000000e+02  0.00000  0.00000  1.00000  0.99672  0.99852
9.860000000e+02  0.00000  0.00000  1.00000  0.99205  0.99854
9.850000000e+02  0.00000  0.00000  1.00000  0.99625  0.99855
9.840000000e+02  0.00000  0.00000  1.00000  0.99151  0.99856
9.830000000e+02  0.00002  0.00003  1.00000  0.86369  0.99854
9.820000000e+02  0.00045  0.00046  1.00000  0.98682  0.99848
9.810000000e+02  0.00279  0.00280  1.00000  0.99555  0.99829
9.800000000e+02  0.00919  0.00954  1.00000  0.96472  0.99717
9.790000000e+02  0.02215  0.02233  1.00000  0.99851  0.99392
9.780000000e+02  0.04085  0.04102  1.00000  0.99806  0.99799
9.770000000e+02  0.06137  0.06234  1.00000  0.98699  0.99842
9.760000000e+02  0.08178  0.08233  1.00000  0.99453  0.99856
9.750000000e+02  0.09490  0.09540  1.00000  0.99619  0.99861
9.740000000e+02  0.09281  0.09382  1.00000  0.99042  0.99864
9.730000000e+02  0.06417  0.06920  1.00000  0.92844  0.99866
9.720000000e+02  0.02566  0.02560  1.00000  0.99757  0.99867
9.710000000e+02  0.00207  0.00209  1.00000  0.98563  0.99868
9.700000000e+02  0.00035  0.00037  1.00000  0.93550  0.99869
9.690000000e+02  0.01452  0.01594  1.00000  0.84730  0.99869
9.680000000e+02  0.08298  0.08376  1.00000  0.98902  0.99870
9.670000000e+02  0.17676  0.17757  1.00000  0.99674  0.99870
9.660000000e+02  0.26003  0.26087  1.00000  0.99810  0.99870
9.650000000e+02  0.32448  0.32563  1.00000  0.99776  0.99870
9.640000000e+02  0.37622  0.37728  1.00000  0.99850  0.99869
9.630000000e+02  0.41768  0.41935  1.00000  0.99737  0.99868
9.620000000e+02  0.45034  0.45413  1.00000  0.99284  0.99867
9.610000000e+02  0.48163  0.48360  1.00000  0.99729  0.99864
9.600000000e+02  0.50455  0.50882  1.00000  0.99303  0.99858
9.590000000e+02  0.47964  0.53056  1.00000  0.90647  0.99849
9.580000000e+02  0.52106  0.55074  1.00000  0.94718  0.99829
9.570000000e+02  0.56321  0.56904  1.00000  0.99194  0.99783
9.560000000e+02  0.56046  0.58534  1.00000  0.96114  0.99628
9.550000000e+02  0.58634  0.60006  1.00000  0.99611  0.98103
9.540000000e+02  0.60444  0.61246  1.00000  0.99697  0.98987
9.530000000e+02  0.61797  0.62157  1.00000  0.99738  0.99681
9.520000000e+02  0.62518  0.62995  1.00000  0.99441  0.99802
9.510000000e+02  0.58960  0.63786  1.00000  0.92598  0.99837
9.500000000e+02  0.63524  0.64540  1.00000  0.98566  0.99853
9.490000000e+02  0.58909  0.65259  1.00000  0.90406  0.99862
9.480000000e+02  0.65556  0.65943  1.00000  0.99550  0.99867
9.470000000e+02  0.66333  0.66582  1.00000  0.99756  0.99870
9.460000000e+02  0.66935  0.67143  1.00000  0.99818  0.99872
9.450000000e+02  0.66196  0.67258  1.00000  0.98539  0.99873
9.440000000e+02  0.67930  0.68259  1.00000  0.99644  0.99873
9.430000000e+02  0.68581  0.68955  1.00000  0.99582  0.99874
9.420000000e+02  0.69320  0.69524  1.00000  0.99832  0.99874
9.410000000e+02  0.69851  0.70041  1.00000  0.99854  0.99874
9.400000000e+02  0.70228  0.70519  1.00000  0.99713  0.99874
9.390000000e+02  0.70738  0.70928  1.00000  0.99858  0.99874
9.380000000e+02  0.71087  0.71309  1.00000  0.99815  0.99874
9.370000000e+02  0.70971  0.71775  1.00000  0.99004  0.99874
9.360000000e+02  0.71450  0.72138  1.00000  0.99173  0.99873
9.350000000e+02  0.72025  0.72441  1.00000  0.99553  0.99873
9.340000000e+02  0.71373  0.72694  1.00000  0.98309  0.99873
9.330000000e+02  0.60684  0.72888  1.00000  0.83357  0.99872
9.320000000e+02  0.71839  0.73003  1.00000  0.98531  0.99871
9.310000000e+02  0.72681  0.73031  1.00000  0.99649  0.99871
9.300000000e+02  0.72653  0.72951  1.00000  0.99722  0.99870
9.290000000e+02  0.72385  0.72720  1.00000  0.99670  0.99869
9.280000000e+02  0.70444  0.72306  1.00000  0.97548  0.99867
9.270000000e+02  0.69555  0.71630  1.00000  0.97232  0.99866
9.260000000e+02  0.67617  0.70616  1.00000  0.95893  0.99863
9.250000000e+02  0.63061  0.69176  1.00000  0.91323  0.99859
9.240000000e+02  0.66579  0.66916  1.00000  0.99642  0.99852
9.230000000e+02  0.63237  0.63495  1.00000  0.99755  0.99838
9.220000000e+02  0.58524  0.58714  1.00000  0.99872  0.99804
9.210000000e+02  0.51255  0.51508  1.00000  0.99824  0.99679
9.200000000e+02  0.39591  0.40496  1.00000  0.98726  0.98886
9.190000000e+02  0.24072  0.24991  1.00000  0.97024  0.99128
9.180000000e+02  0.09707  0.09750  1.00000  0.99747  0.99744
9.170000000e+02  0.00836  0.00840  1.00000  0.99823  0.99808
9.160000000e+02  0.00001  0.00001  1.00000  0.99876  0.99829
9.150000000e+02  0.02427  0.02439  1.00000  0.99726  0.99837
9.140000000e+02  0.14608  0.14655  1.00000  0.99817  0.99840
9.130000000e+02  0.31554  0.31663  1.00000  0.99819  0.99841
9.120000000e+02  0.44968  0.45606  1.00000  0.98763  0.99840
9.110000000e+02  0.54968  0.55247  1.00000  0.99657  0.99839
9.100000000e+02  0.61331  0.61837  1.00000  0.99344  0.99837
9.090000000e+02  0.62280  0.66162  1.00000  0.94354  0.99835
9.080000000e+02  0.60089  0.68736  1.00000  0.87497  0.99832
9.070000000e+02  0.67524  0.68280  1.00000  0.99061  0.99828
9.060000000e+02  0.64506  0.64979  1.00000  0.99435  0.99824
9.050000000e+02  0.72561  0.73043  1.00000  0.99524  0.99819
9.040000000e+02  0.75367  0.75757  1.00000  0.99671  0.99813
9.030000000e+02  0.76201  0.76529  1.00000  0.99765  0.99805
9.020000000e+02  0.77261  0.77853  1.00000  0.99441  0.99795
9.010000000e+02  0.77461  0.78939  1.00000  0.98342  0.99779
9.000000000e+02  0.78807  0.79109  1.00000  0.99862  0.99755
8.990000000e+02  0.78520  0.78853  1.00000  0.99865  0.99712
8.980000000e+02  0.79879  0.80370  1.00000  0.99770  0.99618
8.970000000e+02  0.79703  0.80711  1.00000  0.99373  0.99374
8.960000000e+02  0.72021  0.79741  1.00000  0.91950  0.98228
8.950000000e+02  0.73066  0.79180  1.00000  0.99218  0.93008
8.940000000e+02  0.67915  0.69864  1.00000  0.98644  0.98629
8.930000000e+02  0.74983  0.75624  1.00000  0.99753  0.99386
8.920000000e+02  0.80651  0.81122  1.00000  0.99803  0.99615
8.910000000e+02  0.82177  0.82643  1.00000  0.99747  0.99689
8.900000000e+02  0.82833  0.83307  1.00000  0.99708  0.99721
8.890000000e+02  0.82785  0.83836  1.00000  0.99009  0.99736
8.880000000e+02  0.76355  0.84166  1.00000  0.90951  0.99742
8.870000000e+02  0.78607  0.84443  1.00000  0.93326  0.99743
8.860000000e+02  0.80837  0.84674  1.00000  0.95711  0.99742
8.850000000e+02  0.83729  0.84875  1.00000  0.98906  0.99739
8.840000000e+02  0.83938  0.85052  1.00000  0.98952  0.99734
8.830000000e+02  0.75310  0.85200  1.00000  0.88629  0.99729
8.820000000e+02  0.83839  0.85392  1.00000  0.98452  0.99723
8.810000000e+02  0.84848  0.85550  1.00000  0.99461  0.99716
8.800000000e+02  0.85303  0.85696  1.00000  0.99832  0.99708
8.790000000e+02  0.85478  0.85840  1.00000  0.99877  0.99701
8.780000000e+02  0.85636  0.85976  1.00000  0.99911  0.99692
8.770000000e+02  0.85735  0.86107  1.00000  0.99884  0.99684
8.760000000e+02  0.85560  0.86233  1.00000  0.99544  0.99675
8.750000000e+02  0.85922  0.86355  1.00000  0.99834  0.99665
8.740000000e+02  0.86005  0.86473  1.00000  0.99803  0.99655
8.730000000e+02  0.86205  0.86587  1.00000  0.99913  0.99645
8.720000000e+02  0.86278  0.86697  1.00000  0.99882  0.99634
8.710000000e+02  0.86338  0.86804  1.00000  0.99839  0.99623
8.700000000e+02  0.86140  0.86906  1.00000  0.99505  0.99612
8.690000000e+02  0.85406  0.87002  1.00000  0.98559  0.99600
8.680000000e+02  0.86474  0.87092  1.00000  0.99700  0.99588
8.670000000e+02  0.86490  0.87173  1.00000  0.99640  0.99575
8.660000000e+02  0.83880  0.87240  1.00000  0.96572  0.99562
8.650000000e+02  0.86490  0.87277  1.00000  0.99549  0.99547
8.640000000e+02  0.86244  0.87205  1.00000  0.99367  0.99528
8.630000000e+02  0.77540  0.87051  1.00000  0.89520  0.99499
8.620000000e+02  0.84765  0.86682  1.00000  0.98318  0.99457
8.610000000e+02  0.80354  0.85749  1.00000  0.94408  0.99291
8.600000000e+02  0.82363  0.83453  1.00000  0.99446  0.99244
8.590000000e+02  0.84216  0.85570  1.00000  0.99066  0.99349
8.580000000e+02  0.76425  0.86601  1.00000  0.88856  0.99324
8.570000000e+02  0.84841  0.86962  1.00000  0.98267  0.99281
8.560000000e+02  0.85785  0.87125  1.00000  0.99227  0.99229
8.550000000e+02  0.85893  0.87170  1.00000  0.99361  0.99169
8.540000000e+02  0.85858  0.87042  1.00000  0.99538  0.99099
8.530000000e+02  0.85400  0.87107  1.00000  0.99014  0.99018
8.520000000e+02  0.85778  0.87138  1.00000  0.99511  0.98923
8.510000000e+02  0.85474  0.87007  1.00000  0.99420  0.98812
8.500000000e+02  0.84111  0.86527  1.00000  0.98507  0.98681
8.490000000e+02  0.78642  0.83931  1.00000  0.95018  0.98523
8.480000000e+02  0.84611  0.86462  1.00000  0.99528  0.98330
8.470000000e+02  0.84831  0.87011  1.00000  0.99390  0.98093
8.460000000e+02  0.84411  0.87140  1.00000  0.99052  0.97794
8.450000000e+02  0.83533  0.87187  1.00000  0.98354  0.97412
8.440000000e+02  0.79528  0.87188  1.00000  0.94115  0.96911
8.430000000e+02  0.41205  0.87152  1.00000  0.49090  0.96238
8.420000000e+02  0.49616  0.86998  1.00000  0.59856  0.95301
8.410000000e+02  0.62200  0.86647  1.00000  0.76400  0.93945
8.400000000e+02  0.62906  0.86997  1.00000  0.78601  0.91881
8.390000000e+02  0.70814  0.86832  1.00000  0.92122  0.88530
8.380000000e+02  0.61666  0.87034  1.00000  0.85804  0.82617
8.370000000e+02  0.56161  0.86948  1.00000  0.90891  0.71052
8.360000000e+02  0.38558  0.87102  1.00000  0.95234  0.46567
8.350000000e+02  0.08789  0.87137  1.00000  0.89009  0.11820
8.340000000e+02  0.00179  0.87084  1.00000  0.94919  0.00230
8.330000000e+02  0.15999  0.86917  1.00000  0.87681  0.21432
8.320000000e+02  0.42886  0.86734  1.00000  0.88719  0.55926
8.310000000e+02  0.54849  0.86528  1.00000  0.84365  0.75196
8.300000000e+02  0.70924  0.86273  1.00000  0.97032  0.84624
8.290000000e+02  0.76223  0.85878  1.00000  0.99072  0.89588
8.280000000e+02  0.76467  0.84586  1.00000  0.97785  0.92458
8.270000000e+02  0.73780  0.82770  1.00000  0.94665  0.94237
8.260000000e+02  0.70390  0.84984  1.00000  0.86920  0.95330
8.250000000e+02  0.80098  0.85314  1.00000  0.97553  0.96234
8.240000000e+02  0.82142  0.85282  1.00000  0.99445  0.96856
8.230000000e+02  0.82610  0.85165  1.00000  0.99692  0.97300
8.220000000e+02  0.82775  0.85015  1.00000  0.99727  0.97632
8.210000000e+02  0.82796  0.84849  1.00000  0.99688  0.97886
8.200000000e+02  0.79808  0.84674  1.00000  0.96095  0.98083
8.190000000e+02  0.82323  0.84492  1.00000  0.99181  0.98238
8.180000000e+02  0.81924  0.84306  1.00000  0.98795  0.98360
8.170000000e+02  0.82633  0.84116  1.00000  0.99779  0.98454
8.160000000e+02  0.82473  0.83922  1.00000  0.99740  0.98529
8.150000000e+02  0.82117  0.83726  1.00000  0.99485  0.98586
8.140000000e+02  0.77189  0.83527  1.00000  0.93699  0.98625
8.130000000e+02  0.77538  0.83325  1.00000  0.94341  0.98637
8.120000000e+02  0.80856  0.83121  1.00000  0.98799  0.98454
8.110000000e+02  0.75373  0.82914  1.00000  0.92472  0.98306
8.100000000e+02  0.80749  0.82705  1.00000  0.98942  0.98679
8.090000000e+02  0.80958  0.82493  1.00000  0.99418  0.98713
8.080000000e+02  0.73836  0.82279  1.00000  0.90894  0.98721
8.070000000e+02  0.79204  0.82062  1.00000  0.97773  0.98717
8.060000000e+02  0.80549  0.81843  1.00000  0.99708  0.98707
8.050000000e+02  0.80141  0.81620  1.00000  0.99489  0.98692
8.040000000e+02  0.80052  0.81324  1.00000  0.99768  0.98663
8.030000000e+02  0.79477  0.80905  1.00000  0.99614  0.98616
8.020000000e+02  0.78183  0.80453  1.00000  0.98602  0.98558
8.010000000e+02  0.78627  0.79972  1.00000  0.99827  0.98489
8.000000000e+02  0.78025  0.79458  1.00000  0.99784  0.98409
7.990000000e+02  0.75709  0.78897  1.00000  0.97598  0.98316
7.980000000e+02  0.76588  0.78160  1.00000  0.99775  0.98209
7.970000000e+02  0.75920  0.77517  1.00000  0.99854  0.98082
7.960000000e+02  0.75344  0.77080  1.00000  0.99809  0.97934
7.950000000e+02  0.74368  0.76434  1.00000  0.99526  0.97758
7.940000000e+02  0.73375  0.75719  1.00000  0.99348  0.97538
7.930000000e+02  0.67916  0.74951  1.00000  0.93221  0.97218
7.920000000e+02  0.70566  0.74130  1.00000  0.98797  0.96356
7.910000000e+02  0.69022  0.73254  1.00000  0.99700  0.94507
7.900000000e+02  0.69430  0.72315  1.00000  0.99823  0.96181
7.890000000e+02  0.68251  0.71311  1.00000  0.99785  0.95915
7.880000000e+02  0.66925  0.70238  1.00000  0.99842  0.95432
7.870000000e+02  0.65322  0.69085  1.00000  0.99749  0.94788
7.860000000e+02  0.62356  0.67851  1.00000  0.97774  0.93975
7.850000000e+02  0.56365  0.66529  1.00000  0.91077  0.92943
7.840000000e+02  0.57701  0.65104  1.00000  0.96761  0.91590
7.830000000e+02  0.55369  0.63575  1.00000  0.96943  0.89812
7.820000000e+02  0.49964  0.61928  1.00000  0.92470  0.87379
7.810000000e+02  0.50154  0.60158  1.00000  0.99246  0.84007
7.800000000e+02  0.43468  0.58257  1.00000  0.94044  0.79189
7.790000000e+02  0.39992  0.56203  1.00000  0.99037  0.71838
7.780000000e+02  0.32562  0.53995  1.00000  0.99540  0.60540
7.770000000e+02  0.21551  0.51614  1.00000  0.97346  0.42706
7.760000000e+02  0.08177  0.49057  1.00000  0.91230  0.18628
7.750000000e+02  0.00993  0.46285  1.00000  0.99433  0.02139
7.740000000e+02  0.00021  0.43363  1.00000  0.99539  0.00045
7.730000000e+02  0.00208  0.40221  1.00000  0.99767  0.00537
7.720000000e+02  0.04203  0.36878  1.00000  0.99800  0.11588
7.710000000e+02  0.11681  0.33337  1.00000  0.99831  0.35427
7.700000000e+02  0.16351  0.29625  1.00000  0.99858  0.55506
7.690000000e+02  0.17590  0.25767  1.00000  0.99820  0.68604
7.680000000e+02  0.16622  0.21821  1.00000  0.98987  0.77077
7.670000000e+02  0.14541  0.17855  1.00000  0.98721  0.82584
7.660000000e+02  0.11233  0.13985  1.00000  0.93526  0.86265
7.650000000e+02  0.09060  0.10357  1.00000  0.98635  0.88874
7.640000000e+02  0.06437  0.07091  1.00000  0.99803  0.91046
7.630000000e+02  0.04045  0.04379  1.00000  0.99877  0.92551
7.620000000e+02  0.02170  0.02323  1.00000  0.99726  0.93701
7.610000000e+02  0.00947  0.01005  1.00000  0.99662  0.94593
7.600000000e+02  0.00289  0.00309  1.00000  0.98595  0.95307
7.590000000e+02  0.00057  0.00059  1.00000  0.99766  0.95881
7.580000000e+02  0.00007  0.00007  1.00000  0.98629  0.96350
7.570000000e+02  0.00000  0.00000  1.00000  0.90917  0.96741
7.560000000e+02  0.00000  0.00000  1.00000  0.99527  0.97065
7.550000000e+02 -0.00000 -0.00000  1.00000  0.99032  0.97336
7.540000000e+02 -0.00000 -0.00000  1.00000  0.96384  0.97554
7.530000000e+02  0.00000  0.00000  1.00000  0.99630  0.97698
7.520000000e+02 -0.00000 -0.00000  1.00000  0.97859  0.97434
7.510000000e+02  0.00000  0.00000  1.00000  0.97728  0.97024
7.500000000e+02  0.00000  0.00000  1.00000  0.99493  0.98021
7.490000000e+02  0.00000  0.00000  1.00000  0.93525  0.98308
7.480000000e+02  0.00000  0.00000  1.00000  0.98694  0.98442
7.470000000e+02  0.00000  0.00000  1.00000  0.92156  0.98543
7.460000000e+02  0.00004  0.00004  1.00000  0.98271  0.98627
7.450000000e+02  0.00039  0.00040  1.00000  0.99766  0.98697
7.440000000e+02  0.00325  0.00330  1.00000  0.99781  0.98749
7.430000000e+02  0.01058  0.01081  1.00000  0.98990  0.98773
7.420000000e+02  0.02363  0.02412  1.00000  0.99054  0.98781
7.410000000e+02  0.04238  0.04370  1.00000  0.98374  0.98769
7.400000000e+02  0.06277  0.06803  1.00000  0.92591  0.98731
7.390000000e+02  0.09285  0.09460  1.00000  0.99375  0.98661
7.380000000e+02  0.11885  0.12086  1.00000  0.99782  0.98554
7.370000000e+02  0.14150  0.14423  1.00000  0.99714  0.98392
7.360000000e+02  0.15839  0.16228  1.00000  0.99426  0.98156
7.350000000e+02  0.16570  0.17326  1.00000  0.97781  0.97816
7.340000000e+02  0.16518  0.17592  1.00000  0.96500  0.97314
7.330000000e+02  0.16382  0.17015  1.00000  0.99745  0.96519
7.320000000e+02  0.25004  0.26031  1.00000  0.99852  0.95912
7.310000000e+02  0.38273  0.41110  1.00000  0.99805  0.93223
7.300000000e+02  0.42621  0.43960  1.00000  0.99047  0.97878
7.290000000e+02  0.46074  0.46882  1.00000  0.99855  0.98415
7.280000000e+02  0.48763  0.49609  1.00000  0.99811  0.98482
7.270000000e+02  0.50614  0.52148  1.00000  0.98638  0.98411
7.260000000e+02  0.53418  0.54518  1.00000  0.99713  0.98265
7.250000000e+02  0.55457  0.56717  1.00000  0.99737  0.98038
7.240000000e+02  0.56540  0.58757  1.00000  0.98494  0.97707
7.230000000e+02  0.54532  0.60652  1.00000  0.92415  0.97226
7.220000000e+02  0.60043  0.62413  1.00000  0.99692  0.96505
7.210000000e+02  0.60803  0.64051  1.00000  0.99543  0.95368
7.200000000e+02  0.57280  0.65575  1.00000  0.93470  0.93447
7.190000000e+02  0.59192  0.66994  1.00000  0.98320  0.89868
7.180000000e+02  0.51881  0.68315  1.00000  0.92597  0.82209
7.170000000e+02  0.43261  0.69549  1.00000  0.99017  0.62882
7.160000000e+02  0.13870  0.70700  1.00000  0.99802  0.19745
7.150000000e+02  0.08772  0.71776  1.00000  0.99855  0.12198
7.140000000e+02  0.40568  0.72782  1.00000  0.99825  0.55770
7.130000000e+02  0.58480  0.73723  1.00000  0.99866  0.79408
7.120000000e+02  0.65651  0.74605  1.00000  0.99179  0.88736
7.110000000e+02  0.69723  0.75432  1.00000  0.99434  0.92947
7.100000000e+02  0.71714  0.76208  1.00000  0.98900  0.95154
7.090000000e+02  0.73974  0.76938  1.00000  0.99692  0.96444
7.080000000e+02  0.74641  0.77624  1.00000  0.98867  0.97257
7.070000000e+02  0.76431  0.78269  1.00000  0.99884  0.97764
7.060000000e+02  0.77364  0.78877  1.00000  0.99889  0.98191
7.050000000e+02  0.78186  0.79450  1.00000  0.99915  0.98492
7.040000000e+02  0.78866  0.79991  1.00000  0.99880  0.98712
7.030000000e+02  0.79385  0.80499  1.00000  0.99733  0.98880
7.020000000e+02  0.78786  0.80949  1.00000  0.98299  0.99014
7.010000000e+02  0.73188  0.81223  1.00000  0.90908  0.99120
7.000000000e+02  0.80108  0.81486  1.00000  0.99093  0.99207
6.990000000e+02  0.80061  0.81737  1.00000  0.98661  0.99278
6.980000000e+02  0.81225  0.81981  1.00000  0.99738  0.99338
6.970000000e+02  0.81312  0.82218  1.00000  0.99506  0.99389
6.960000000e+02  0.80550  0.82445  1.00000  0.98260  0.99431
6.950000000e+02  0.78554  0.82654  1.00000  0.95552  0.99465
6.940000000e+02  0.79433  0.82821  1.00000  0.96408  0.99483
6.930000000e+02  0.76977  0.82801  1.00000  0.93567  0.99365
6.920000000e+02  0.75639  0.81927  1.00000  0.92821  0.99460
6.910000000e+02  0.82239  0.83317  1.00000  0.99132  0.99570
6.900000000e+02  0.83234  0.83744  1.00000  0.99789  0.99600
6.890000000e+02  0.83618  0.84031  1.00000  0.99887  0.99622
6.880000000e+02  0.83898  0.84276  1.00000  0.99911  0.99640
6.870000000e+02  0.84117  0.84505  1.00000  0.99884  0.99657
6.860000000e+02  0.84315  0.84726  1.00000  0.99844  0.99671
6.850000000e+02  0.84508  0.84941  1.00000  0.99805  0.99684
6.840000000e+02  0.82546  0.85151  1.00000  0.97237  0.99696
6.830000000e+02  0.84753  0.85358  1.00000  0.99582  0.99707
6.820000000e+02  0.85198  0.85561  1.00000  0.99857  0.99717
6.810000000e+02  0.85455  0.85762  1.00000  0.99915  0.99726
6.800000000e+02  0.85635  0.85960  1.00000  0.99887  0.99735
6.790000000e+02  0.85714  0.86154  1.00000  0.99747  0.99742
6.780000000e+02  0.85955  0.86346  1.00000  0.99799  0.99747
6.770000000e+02  0.85557  0.86534  1.00000  0.99117  0.99751
6.760000000e+02  0.85352  0.86720  1.00000  0.98669  0.99749
6.750000000e+02  0.86348  0.86902  1.00000  0.99625  0.99737
6.740000000e+02  0.84150  0.87082  1.00000  0.96942  0.99681
6.730000000e+02  0.84855  0.87257  1.00000  0.98143  0.99086
6.720000000e+02  0.79581  0.87402  1.00000  0.91732  0.99280
6.710000000e+02  0.85545  0.87394  1.00000  0.98181  0.99698
6.700000000e+02  0.79665  0.87361  1.00000  0.91406  0.99763
6.690000000e+02  0.86271  0.87324  1.00000  0.99007  0.99785
6.680000000e+02  0.86339  0.87283  1.00000  0.99120  0.99796
6.670000000e+02  0.83324  0.87236  1.00000  0.95703  0.99803
6.660000000e+02  0.79978  0.87176  1.00000  0.91918  0.99809
6.650000000e+02  0.85451  0.87114  1.00000  0.98274  0.99813
6.640000000e+02  0.86480  0.87028  1.00000  0.99553  0.99817
6.630000000e+02  0.86350  0.86900  1.00000  0.99545  0.99821
6.620000000e+02  0.85380  0.86716  1.00000  0.98632  0.99824
6.610000000e+02  0.83099  0.86381  1.00000  0.96372  0.99827
6.600000000e+02  0.85060  0.85721  1.00000  0.99397  0.99830
6.590000000e+02  0.82233  0.84065  1.00000  0.97977  0.99833
6.580000000e+02  0.75111  0.81050  1.00000  0.92700  0.99836
6.570000000e+02  0.77738  0.84407  1.00000  0.92271  0.99839
6.560000000e+02  0.46658  0.85756  1.00000  0.54477  0.99841
6.550000000e+02  0.48116  0.86278  1.00000  0.55852  0.99844
6.540000000e+02  0.77385  0.86502  1.00000  0.89603  0.99846
6.530000000e+02  0.84354  0.86602  1.00000  0.97552  0.99848
6.520000000e+02  0.81563  0.86646  1.00000  0.94275  0.99851
6.510000000e+02  0.78135  0.86658  1.00000  0.90297  0.99853
6.500000000e+02  0.85717  0.86648  1.00000  0.99070  0.99854
6.490000000e+02  0.85911  0.86621  1.00000  0.99323  0.99856
6.480000000e+02  0.79732  0.86574  1.00000  0.92229  0.99856
6.470000000e+02  0.85307  0.86479  1.00000  0.98787  0.99856
6.460000000e+02  0.84255  0.86209  1.00000  0.97878  0.99851
6.450000000e+02  0.79920  0.86378  1.00000  0.92678  0.99834
6.440000000e+02  0.85380  0.86386  1.00000  0.99136  0.99696
6.430000000e+02  0.84744  0.86337  1.00000  0.98597  0.99553
6.420000000e+02  0.80406  0.86239  1.00000  0.93407  0.99819
6.410000000e+02  0.85011  0.85985  1.00000  0.99012  0.99855
6.400000000e+02  0.83252  0.85695  1.00000  0.97281  0.99865
6.390000000e+02  0.79302  0.85388  1.00000  0.92992  0.99868
6.380000000e+02  0.84437  0.85062  1.00000  0.99395  0.99870
6.370000000e+02  0.84382  0.84713  1.00000  0.99739  0.99871
6.360000000e+02  0.83976  0.84337  1.00000  0.99701  0.99870
6.350000000e+02  0.80632  0.83929  1.00000  0.96190  0.99869
6.340000000e+02  0.80768  0.83478  1.00000  0.96887  0.99867
6.330000000e+02  0.81754  0.82975  1.00000  0.98666  0.99862
6.320000000e+02  0.78694  0.82400  1.00000  0.95647  0.99854
6.310000000e+02  0.81444  0.81725  1.00000  0.99819  0.99835
6.300000000e+02  0.80598  0.80912  1.00000  0.99824  0.99786
6.290000000e+02  0.79475  0.79898  1.00000  0.99859  0.99610
6.280000000e+02  0.76940  0.78578  1.00000  0.99767  0.98141
6.270000000e+02  0.76086  0.76770  1.00000  0.99825  0.99285
6.260000000e+02  0.73660  0.74140  1.00000  0.99614  0.99736
6.250000000e+02  0.68925  0.70030  1.00000  0.98620  0.99822
6.240000000e+02  0.60060  0.63079  1.00000  0.95165  0.99852
6.230000000e+02  0.49942  0.50451  1.00000  0.99161  0.99866
6.220000000e+02  0.28249  0.28466  1.00000  0.99309  0.99874
6.210000000e+02  0.03889  0.04029  1.00000  0.86580  0.99879
6.200000000e+02  0.11048  0.11177  1.00000  0.98480  0.99883
6.190000000e+02  0.37199  0.37376  1.00000  0.99670  0.99885
6.180000000e+02  0.54875  0.55105  1.00000  0.99701  0.99888
6.170000000e+02  0.63521  0.64218  1.00000  0.99006  0.99889
6.160000000e+02  0.68361  0.69219  1.00000  0.98857  0.99891
6.150000000e+02  0.70364  0.72071  1.00000  0.97746  0.99892
6.140000000e+02  0.73360  0.73716  1.00000  0.99622  0.99893
6.130000000e+02  0.74363  0.74683  1.00000  0.99678  0.99894
6.120000000e+02  0.74310  0.75215  1.00000  0.98900  0.99895
6.110000000e+02  0.69184  0.75318  1.00000  0.91952  0.99895
6.100000000e+02  0.65336  0.75192  1.00000  0.86989  0.99895
6.090000000e+02  0.73953  0.74920  1.00000  0.98814  0.99895
6.080000000e+02  0.73728  0.74529  1.00000  0.99028  0.99895
6.070000000e+02  0.73720  0.74034  1.00000  0.99682  0.99895
6.060000000e+02  0.73239  0.73436  1.00000  0.99836  0.99895
6.050000000e+02  0.72588  0.72739  1.00000  0.99898  0.99895
6.040000000e+02  0.71789  0.71920  1.00000  0.99923  0.99895
6.030000000e+02  0.70694  0.70917  1.00000  0.99790  0.99895
6.020000000e+02  0.69323  0.69519  1.00000  0.99823  0.99895
6.010000000e+02  0.66546  0.66768  1.00000  0.99773  0.99894
6.000000000e+02  0.56984  0.57787  1.00000  0.98611  0.99894
5.990000000e+02  0.64306  0.64455  1.00000  0.99875  0.99894
5.980000000e+02  0.65446  0.65615  1.00000  0.99849  0.99894
5.970000000e+02  0.64914  0.65072  1.00000  0.99865  0.99893
5.960000000e+02  0.63725  0.64072  1.00000  0.99564  0.99893
5.950000000e+02  0.59326  0.62869  1.00000  0.94470  0.99893
5.940000000e+02  0.61201  0.61572  1.00000  0.99506  0.99892
5.930000000e+02  0.58216  0.60135  1.00000  0.96890  0.99892
5.920000000e+02  0.57994  0.58586  1.00000  0.99101  0.99891
5.910000000e+02  0.55336  0.56950  1.00000  0.97281  0.99890
5.900000000e+02  0.54404  0.55193  1.00000  0.98687  0.99889
5.890000000e+02  0.53075  0.53318  1.00000  0.99655  0.99887
5.880000000e+02  0.51215  0.51328  1.00000  0.99896  0.99884
5.870000000e+02  0.49091  0.49214  1.00000  0.99868  0.99880
5.860000000e+02  0.46847  0.46973  1.00000  0.99859  0.99872
5.850000000e+02  0.44464  0.44609  1.00000  0.99820  0.99853
5.840000000e+02  0.41251  0.42112  1.00000  0.98111  0.99795
5.830000000e+02  0.38585  0.39487  1.00000  0.98336  0.99383
5.820000000e+02  0.34091  0.36731  1.00000  0.93647  0.99168
5.810000000e+02  0.33654  0.33851  1.00000  0.99669  0.99747
5.800000000e+02  0.30750  0.30856  1.00000  0.99817  0.99837
5.790000000e+02  0.27688  0.27766  1.00000  0.99859  0.99858
5.780000000e+02  0.24517  0.24606  1.00000  0.99771  0.99865
5.770000000e+02  0.20861  0.21408  1.00000  0.97439  0.99867
5.760000000e+02  0.17879  0.18213  1.00000  0.98379  0.99865
5.750000000e+02  0.14927  0.15073  1.00000  0.99123  0.99862
5.740000000e+02  0.11733  0.12058  1.00000  0.97328  0.99855
5.730000000e+02  0.08962  0.09248  1.00000  0.97001  0.99845
5.720000000e+02  0.06652  0.06724  1.00000  0.99110  0.99829
5.710000000e+02  0.04129  0.04551  1.00000  0.90818  0.99800
5.700000000e+02  0.02661  0.02813  1.00000  0.94948  0.99740
5.690000000e+02  0.01530  0.01547  1.00000  0.99402  0.99586
5.680000000e+02  0.00714  0.00725  1.00000  0.99437  0.98971
5.670000000e+02  0.00241  0.00263  1.00000  0.94975  0.94914
5.660000000e+02  0.00058  0.00068  1.00000  0.90171  0.98720
5.650000000e+02  0.00011  0.00011  1.00000  0.99631  0.99536
5.640000000e+02  0.00001  0.00001  1.00000  0.99725  0.99715
5.630000000e+02  0.00000  0.00000  1.00000  0.99575  0.99783
5.620000000e+02  0.00000  0.00000  1.00000  0.99818  0.99815
5.610000000e+02  0.00000  0.00000  1.00000  0.99801  0.99831
5.600000000e+02  0.00000  0.00000  1.00000  0.96817  0.99841
5.590000000e+02  0.00000  0.00000  1.00000  0.99469  0.99847
5.580000000e+02  0.00000  0.00000  1.00000  0.98999  0.99850
5.570000000e+02  0.00000  0.00000  1.00000  0.99361  0.99853
5.560000000e+02  0.00000  0.00000  1.00000  0.99827  0.99854
5.550000000e+02  0.00000  0.00000  1.00000  0.99857  0.99855
5.540000000e+02  0.00000  0.00000  1.00000  0.99882  0.99855
5.530000000e+02  0.00000  0.00000  1.00000  0.99743  0.99855
5.520000000e+02  0.00000  0.00000  1.00000  0.99043  0.99854
5.510000000e+02  0.00000  0.00000  1.00000  0.93495  0.99851
5.500000000e+02  0.00001  0.00001  1.00000  0.99402  0.99848
5.490000000e+02  0.00008  0.00008  1.00000  0.98822  0.99845
5.480000000e+02  0.00012  0.00012  1.00000  0.99866  0.99841
5.470000000e+02  0.00137  0.00137  1.00000  0.99863  0.99838
5.460000000e+02  0.00585  0.00587  1.00000  0.99775  0.99834
5.450000000e+02  0.01364  0.01426  1.00000  0.96090  0.99830
5.440000000e+02  0.02696  0.02714  1.00000  0.99439  0.99826
5.430000000e+02  0.04439  0.04464  1.00000  0.99642  0.99822
5.420000000e+02  0.06627  0.06650  1.00000  0.99836  0.99817
5.410000000e+02  0.09162  0.09205  1.00000  0.99731  0.99813
5.400000000e+02  0.11823  0.12045  1.00000  0.98322  0.99808
5.390000000e+02  0.14609  0.15103  1.00000  0.96704  0.99804
5.380000000e+02  0.18165  0.18259  1.00000  0.99695  0.99799
5.370000000e+02  0.21373  0.21458  1.00000  0.99807  0.99793
5.360000000e+02  0.24247  0.24751  1.00000  0.98184  0.99788
5.350000000e+02  0.27794  0.27962  1.00000  0.99620  0.99783
5.340000000e+02  0.30325  0.31091  1.00000  0.97701  0.99777
5.330000000e+02  0.33991  0.34129  1.00000  0.99818  0.99772
5.320000000e+02  0.36926  0.37059  1.00000  0.99877  0.99766
5.310000000e+02  0.39496  0.39861  1.00000  0.99322  0.99759
5.300000000e+02  0.41829  0.42539  1.00000  0.98593  0.99753
5.290000000e+02  0.44845  0.45088  1.00000  0.99711  0.99746
5.280000000e+02  0.47336  0.47511  1.00000  0.99893  0.99738
5.270000000e+02  0.49596  0.49804  1.00000  0.99854  0.99729
5.260000000e+02  0.51750  0.51977  1.00000  0.99851  0.99713
5.250000000e+02  0.53682  0.54029  1.00000  0.99747  0.99610
5.240000000e+02  0.54762  0.55970  1.00000  0.98212  0.99637
5.230000000e+02  0.52905  0.57801  1.00000  0.91744  0.99693
5.220000000e+02  0.56436  0.59434  1.00000  0.95247  0.99692
5.210000000e+02  0.59819  0.60599  1.00000  0.99031  0.99681
5.200000000e+02  0.56828  0.61645  1.00000  0.92465  0.99667
5.190000000e+02  0.62253  0.62850  1.00000  0.99394  0.99652
5.180000000e+02  0.62714  0.63940  1.00000  0.98449  0.99634
5.170000000e+02  0.62364  0.64978  1.00000  0.96328  0.99615
5.160000000e+02  0.65562  0.66027  1.00000  0.99700  0.99593
5.150000000e+02  0.65951  0.67017  1.00000  0.98834  0.99569
5.140000000e+02  0.67528  0.67967  1.00000  0.99812  0.99542
5.130000000e+02  0.68412  0.68844  1.00000  0.99862  0.99510
5.120000000e+02  0.69072  0.69593  1.00000  0.99781  0.99470
5.110000000e+02  0.69508  0.70008  1.00000  0.99872  0.99412
5.100000000e+02  0.67755  0.68418  1.00000  0.99752  0.99271
5.090000000e+02  0.65041  0.66807  1.00000  0.98636  0.98657
5.080000000e+02  0.64839  0.72237  1.00000  0.90521  0.99179
5.070000000e+02  0.72851  0.73831  1.00000  0.99453  0.99219
5.060000000e+02  0.73988  0.74822  1.00000  0.99712  0.99171
5.050000000e+02  0.74097  0.75393  1.00000  0.99173  0.99099
5.040000000e+02  0.74575  0.75396  1.00000  0.99901  0.99009
5.030000000e+02  0.75823  0.76751  1.00000  0.99891  0.98899
5.020000000e+02  0.76899  0.78019  1.00000  0.99796  0.98766
5.010000000e+02  0.77411  0.78839  1.00000  0.99583  0.98602
5.000000000e+02  0.77486  0.79561  1.00000  0.98975  0.98398
4.990000000e+02  0.76069  0.80229  1.00000  0.96614  0.98142
4.980000000e+02  0.77948  0.80857  1.00000  0.98559  0.97812
4.970000000e+02  0.76647  0.81450  1.00000  0.96634  0.97380
4.960000000e+02  0.75369  0.81999  1.00000  0.94958  0.96795
4.950000000e+02  0.78996  0.82493  1.00000  0.99772  0.95980
4.940000000e+02  0.78492  0.82905  1.00000  0.99876  0.94796
4.930000000e+02  0.77245  0.83172  1.00000  0.99878  0.92987
4.920000000e+02  0.74189  0.83024  1.00000  0.99309  0.89976
4.910000000e+02  0.68124  0.80604  1.00000  0.99818  0.84627
4.900000000e+02  0.58616  0.79821  1.00000  0.99050  0.74081
4.890000000e+02  0.37586  0.73243  1.00000  0.99434  0.51193
4.880000000e+02  0.08496  0.73863  1.00000  0.99200  0.12371
4.870000000e+02  0.01626  0.82393  1.00000  0.95262  0.01937
4.860000000e+02  0.27096  0.84223  1.00000  0.99601  0.32222
4.850000000e+02  0.55163  0.85055  1.00000  0.99765  0.65007
4.840000000e+02  0.68351  0.85480  1.00000  0.99630  0.80257
4.830000000e+02  0.74713  0.85690  1.00000  0.99558  0.87577
4.820000000e+02  0.72543  0.85536  1.00000  0.92647  0.91599
4.810000000e+02  0.72039  0.85662  1.00000  0.89564  0.93894
4.800000000e+02  0.78201  0.85289  1.00000  0.96160  0.95349
4.790000000e+02  0.80905  0.84835  1.00000  0.99019  0.96313
4.780000000e+02  0.80627  0.83457  1.00000  0.99609  0.96990
4.770000000e+02  0.77662  0.80107  1.00000  0.99463  0.97470
4.760000000e+02  0.65770  0.71287  1.00000  0.94385  0.97802
4.750000000e+02  0.40299  0.41484  1.00000  0.99402  0.97771
4.740000000e+02  0.55727  0.57122  1.00000  0.99283  0.98231
4.730000000e+02  0.69640  0.74821  1.00000  0.94568  0.98489
4.720000000e+02  0.76345  0.78578  1.00000  0.98501  0.98639
4.710000000e+02  0.66553  0.70818  1.00000  0.94893  0.98751
4.700000000e+02  0.74769  0.80760  1.00000  0.93734  0.98838
4.690000000e+02  0.79520  0.85373  1.00000  0.94151  0.98908
4.680000000e+02  0.77300  0.86991  1.00000  0.89786  0.98959
4.670000000e+02  0.82865  0.87706  1.00000  0.95447  0.98990
4.660000000e+02  0.86248  0.88002  1.00000  0.99008  0.98988
4.650000000e+02  0.86035  0.87512  1.00000  0.99445  0.98861
4.640000000e+02  0.84626  0.88266  1.00000  0.98339  0.97499
4.630000000e+02  0.82382  0.88399  1.00000  0.94481  0.98633
4.620000000e+02  0.84975  0.88335  1.00000  0.97138  0.99030
4.610000000e+02  0.87097  0.88088  1.00000  0.99756  0.99117
4.600000000e+02  0.86732  0.87691  1.00000  0.99763  0.99142
4.590000000e+02  0.86159  0.87119  1.00000  0.99748  0.99147
4.580000000e+02  0.84541  0.86321  1.00000  0.98780  0.99143
4.570000000e+02  0.80767  0.85207  1.00000  0.95639  0.99132
4.560000000e+02  0.82710  0.83637  1.00000  0.99775  0.99115
4.550000000e+02  0.80085  0.81378  1.00000  0.99307  0.99091
4.540000000e+02  0.76987  0.78030  1.00000  0.99597  0.99062
4.530000000e+02  0.72048  0.72888  1.00000  0.99818  0.99027
4.520000000e+02  0.63799  0.64684  1.00000  0.99650  0.98985
4.510000000e+02  0.50624  0.51258  1.00000  0.99828  0.98935
4.500000000e+02  0.29958  0.30399  1.00000  0.99643  0.98878
4.490000000e+02  0.07013  0.07358  1.00000  0.94844  0.98811
4.480000000e+02  0.00150  0.00153  1.00000  0.99483  0.98734
4.470000000e+02  0.06779  0.06959  1.00000  0.99185  0.98644
4.460000000e+02  0.27611  0.28676  1.00000  0.97759  0.98540
4.450000000e+02  0.47929  0.49612  1.00000  0.97921  0.98419
4.440000000e+02  0.61128  0.62323  1.00000  0.99820  0.98277
4.430000000e+02  0.64529  0.66057  1.00000  0.99578  0.98110
4.420000000e+02  0.70169  0.74676  1.00000  0.95971  0.97912
4.410000000e+02  0.69782  0.76696  1.00000  0.93162  0.97676
4.400000000e+02  0.68262  0.70355  1.00000  0.99613  0.97391
4.390000000e+02  0.53324  0.55286  1.00000  0.99456  0.97045
4.380000000e+02  0.71229  0.76757  1.00000  0.96118  0.96616
4.370000000e+02  0.78164  0.82875  1.00000  0.98110  0.96082
4.360000000e+02  0.83144  0.87345  1.00000  0.99779  0.95400
4.350000000e+02  0.84210  0.89199  1.00000  0.99882  0.94520
4.340000000e+02  0.84185  0.90300  1.00000  0.99873  0.93348
4.330000000e+02  0.83472  0.91072  1.00000  0.99891  0.91757
4.320000000e+02  0.81922  0.91648  1.00000  0.99871  0.89505
4.310000000e+02  0.78961  0.92088  1.00000  0.99437  0.86227
4.300000000e+02  0.72730  0.92445  1.00000  0.96975  0.81170
4.290000000e+02  0.65446  0.92743  1.00000  0.96758  0.72912
4.280000000e+02  0.54593  0.92998  1.00000  0.99463  0.59033
4.270000000e+02  0.33073  0.93217  1.00000  0.99813  0.35550
4.260000000e+02  0.07573  0.93408  1.00000  0.99272  0.08166
4.250000000e+02 -0.00003  0.93578  1.00000  0.96799 -0.00003
4.240000000e+02  0.01277  0.93729  1.00000  0.95890  0.01498
4.230000000e+02  0.19986  0.93864  1.00000  0.99271  0.21402
4.220000000e+02  0.46192  0.93985  1.00000  0.99838  0.49223
4.210000000e+02  0.62876  0.94095  1.00000  0.99464  0.67192
4.200000000e+02  0.73000  0.94194  1.00000  0.99891  0.77582
4.190000000e+02  0.79170  0.94284  1.00000  0.99926  0.84031
4.180000000e+02  0.83055  0.94365  1.00000  0.99931  0.88075
4.170000000e+02  0.85627  0.94439  1.00000  0.99894  0.90765
4.160000000e+02  0.87391  0.94504  1.00000  0.99823  0.92636
4.150000000e+02  0.88150  0.94563  1.00000  0.99194  0.93977
4.140000000e+02  0.84709  0.94615  1.00000  0.94302  0.94929
4.130000000e+02  0.89113  0.94660  1.00000  0.98867  0.95218
4.120000000e+02  0.90581  0.94699  1.00000  0.99768  0.95874
4.110000000e+02  0.91594  0.94730  1.00000  0.99899  0.96787
4.100000000e+02  0.92010  0.94754  1.00000  0.99880  0.97222
4.090000000e+02  0.91892  0.94770  1.00000  0.99402  0.97547
4.080000000e+02  0.89372  0.94778  1.00000  0.96406  0.97809
4.070000000e+02  0.92741  0.94777  1.00000  0.99826  0.98022
4.060000000e+02  0.92943  0.94767  1.00000  0.99882  0.98191
4.050000000e+02  0.92995  0.94745  1.00000  0.99840  0.98311
4.040000000e+02  0.92269  0.94711  1.00000  0.99056  0.98351
4.030000000e+02  0.91342  0.94662  1.00000  0.98350  0.98108
4.020000000e+02  0.85171  0.94597  1.00000  0.94640  0.95230
4.010000000e+02  0.89121  0.94511  1.00000  0.96599  0.97607
4.000000000e+02  0.91094  0.94402  1.00000  0.97838  0.98628
3.990000000e+02  0.92931  0.94265  1.00000  0.99717  0.98864
3.980000000e+02  0.93003  0.94095  1.00000  0.99849  0.98988
3.970000000e+02  0.91353  0.93884  1.00000  0.98218  0.99069
3.960000000e+02  0.92367  0.93619  1.00000  0.99527  0.99131
3.950000000e+02  0.92071  0.93284  1.00000  0.99514  0.99180
3.940000000e+02  0.91979  0.92851  1.00000  0.99838  0.99222
3.930000000e+02  0.88734  0.92274  1.00000  0.96876  0.99257
3.920000000e+02  0.90254  0.91417  1.00000  0.99438  0.99287
3.910000000e+02  0.88292  0.89009  1.00000  0.99882  0.99312
3.900000000e+02  0.87910  0.88561  1.00000  0.99931  0.99333
3.890000000e+02  0.87426  0.88078  1.00000  0.99911  0.99349
3.880000000e+02  0.85500  0.86284  1.00000  0.99728  0.99361
3.870000000e+02  0.80927  0.83491  1.00000  0.97561  0.99370
3.860000000e+02  0.78509  0.79054  1.00000  0.99933  0.99373
3.850000000e+02  0.72500  0.73030  1.00000  0.99902  0.99372
3.840000000e+02  0.62778  0.63207  1.00000  0.99956  0.99364
3.830000000e+02  0.47100  0.47436  1.00000  0.99939  0.99350
3.820000000e+02  0.24395  0.24585  1.00000  0.99902  0.99328
3.810000000e+02  0.04445  0.04478  1.00000  0.99945  0.99295
3.800000000e+02  0.00350  0.00353  1.00000  0.99898  0.99248
3.790000000e+02  0.09577  0.09808  1.00000  0.98962  0.99182
3.780000000e+02  0.31784  0.32830  1.00000  0.97206  0.99090
3.770000000e+02  0.52936  0.53604  1.00000  0.99832  0.98958
3.760000000e+02  0.65588  0.67215  1.00000  0.98782  0.98765
3.750000000e+02  0.72495  0.75854  1.00000  0.97017  0.98473
3.740000000e+02  0.79745  0.81462  1.00000  0.99886  0.98009
3.730000000e+02  0.82685  0.85180  1.00000  0.99869  0.97202
3.720000000e+02  0.83735  0.87702  1.00000  0.99851  0.95623
3.710000000e+02  0.80409  0.89222  1.00000  0.98061  0.91915
3.700000000e+02  0.73523  0.90205  1.00000  0.99829  0.81658
3.690000000e+02  0.38069  0.90795  1.00000  0.99553  0.42138
3.680000000e+02  0.37056  0.91092  1.00000  0.99679  0.40785
3.670000000e+02  0.70399  0.91148  1.00000  0.97627  0.79172
3.660000000e+02  0.81971  0.92420  1.00000  0.99492  0.89067
3.650000000e+02  0.89334  0.94567  1.00000  0.98693  0.95725
3.640000000e+02  0.88083  0.94917  1.00000  0.95406  0.97245
3.630000000e+02  0.92379  0.95221  1.00000  0.98924  0.98067
3.620000000e+02  0.93399  0.95479  1.00000  0.99260  0.98552
3.610000000e+02  0.94357  0.95701  1.00000  0.99733  0.98859
3.600000000e+02  0.93157  0.95894  1.00000  0.98063  0.99067
3.590000000e+02  0.90193  0.96062  1.00000  0.94635  0.99214
3.580000000e+02  0.92214  0.96210  1.00000  0.96502  0.99321
3.570000000e+02  0.95270  0.96340  1.00000  0.99494  0.99392
3.560000000e+02  0.95605  0.96456  1.00000  0.99730  0.99387
3.550000000e+02  0.94752  0.96560  1.00000  0.98612  0.99508
3.540000000e+02  0.95964  0.96653  1.00000  0.99727  0.99559
3.530000000e+02  0.93788  0.96737  1.00000  0.97345  0.99596
3.520000000e+02  0.93671  0.96812  1.00000  0.97119  0.99625
3.510000000e+02  0.96431  0.96880  1.00000  0.99887  0.99649
3.500000000e+02  0.96473  0.96941  1.00000  0.99847  0.99669
3.490000000e+02  0.96637  0.96996  1.00000  0.99944  0.99686
3.480000000e+02  0.96711  0.97045  1.00000  0.99958  0.99698
3.470000000e+02  0.96761  0.97088  1.00000  0.99964  0.99700
3.460000000e+02  0.96769  0.97126  1.00000  0.99972  0.99660
3.450000000e+02  0.96525  0.97159  1.00000  0.99960  0.99388
3.440000000e+02  0.96687  0.97186  1.00000  0.99801  0.99685
3.430000000e+02  0.95969  0.97206  1.00000  0.98980  0.99744
3.420000000e+02  0.96938  0.97221  1.00000  0.99944  0.99765
3.410000000e+02  0.96979  0.97227  1.00000  0.99967  0.99777
3.400000000e+02  0.96995  0.97225  1.00000  0.99977  0.99787
3.390000000e+02  0.96964  0.97211  1.00000  0.99951  0.99795
3.380000000e+02  0.96947  0.97182  1.00000  0.99955  0.99802
3.370000000e+02  0.96902  0.97128  1.00000  0.99959  0.99808
3.360000000e+02  0.96722  0.97009  1.00000  0.99890  0.99814
3.350000000e+02  0.96192  0.96893  1.00000  0.99459  0.99817
3.340000000e+02  0.96517  0.96848  1.00000  0.99838  0.99820
3.330000000e+02  0.93135  0.96661  1.00000  0.96522  0.99822
3.320000000e+02  0.95780  0.96365  1.00000  0.99567  0.99825
3.310000000e+02  0.95643  0.95895  1.00000  0.99910  0.99827
3.300000000e+02  0.94881  0.95119  1.00000  0.99919  0.99829
3.290000000e+02  0.93502  0.93755  1.00000  0.99898  0.99832
3.280000000e+02  0.90211  0.91080  1.00000  0.99206  0.99834
3.270000000e+02  0.82025  0.85281  1.00000  0.96316  0.99836
3.260000000e+02  0.69554  0.69890  1.00000  0.99694  0.99838
3.250000000e+02  0.44921  0.45028  1.00000  0.99919  0.99840
3.240000000e+02  0.75841  0.76050  1.00000  0.99885  0.99843
3.230000000e+02  0.87021  0.87201  1.00000  0.99949  0.99845
3.220000000e+02  0.91448  0.91679  1.00000  0.99901  0.99847
3.210000000e+02  0.93093  0.93349  1.00000  0.99877  0.99849
3.200000000e+02  0.93321  0.95356  1.00000  0.98013  0.99850
3.190000000e+02  0.96039  0.96299  1.00000  0.99877  0.99852
3.180000000e+02  0.96575  0.96837  1.00000  0.99874  0.99854
3.170000000e+02  0.96152  0.97165  1.00000  0.99100  0.99856
3.160000000e+02  0.93519  0.97458  1.00000  0.96095  0.99858
3.150000000e+02  0.97376  0.97641  1.00000  0.99869  0.99859
3.140000000e+02  0.97475  0.97684  1.00000  0.99925  0.99861
3.130000000e+02  0.97699  0.97881  1.00000  0.99952  0.99862
3.120000000e+02  0.97845  0.98012  1.00000  0.99966  0.99863
3.110000000e+02  0.97877  0.98054  1.00000  0.99954  0.99864
3.100000000e+02  0.97560  0.98139  1.00000  0.99544  0.99865
3.090000000e+02  0.98045  0.98247  1.00000  0.99930  0.99864
3.080000000e+02  0.98142  0.98311  1.00000  0.99966  0.99862
3.070000000e+02  0.98188  0.98364  1.00000  0.99966  0.99855
3.060000000e+02  0.98202  0.98409  1.00000  0.99963  0.99826
3.050000000e+02  0.98000  0.98435  1.00000  0.99939  0.99619
3.040000000e+02  0.98059  0.98470  1.00000  0.99802  0.99779
3.030000000e+02  0.96516  0.98497  1.00000  0.98148  0.99837
3.020000000e+02  0.94989  0.98521  1.00000  0.96571  0.99838
3.010000000e+02  0.97552  0.98544  1.00000  0.99178  0.99814
3.000000000e+02  0.98117  0.98564  1.00000  0.99817  0.99729
2.990000000e+02  0.97674  0.98584  1.00000  0.99917  0.99159
2.980000000e+02  0.97510  0.98602  1.00000  0.99946  0.98945
2.970000000e+02  0.98269  0.98619  1.00000  0.99920  0.99725
2.960000000e+02  0.98410  0.98636  1.00000  0.99954  0.99817
2.950000000e+02  0.98442  0.98651  1.00000  0.99941  0.99847
2.940000000e+02  0.98131  0.98666  1.00000  0.99596  0.99860
2.930000000e+02  0.97171  0.98681  1.00000  0.98601  0.99867
2.920000000e+02  0.98446  0.98695  1.00000  0.99876  0.99871
2.910000000e+02  0.98353  0.98709  1.00000  0.99765  0.99874
2.900000000e+02  0.98437  0.98722  1.00000  0.99835  0.99876
2.890000000e+02  0.96156  0.98735  1.00000  0.97507  0.99877
2.880000000e+02  0.98401  0.98748  1.00000  0.99771  0.99878
2.870000000e+02  0.98274  0.98760  1.00000  0.99629  0.99879
2.860000000e+02  0.94847  0.98771  1.00000  0.96142  0.99880
2.850000000e+02  0.98450  0.98782  1.00000  0.99783  0.99881
2.840000000e+02  0.98599  0.98792  1.00000  0.99924  0.99881
2.830000000e+02  0.98324  0.98799  1.00000  0.99637  0.99882
2.820000000e+02  0.98610  0.98816  1.00000  0.99910  0.99882
2.810000000e+02  0.98623  0.98827  1.00000  0.99910  0.99883
2.800000000e+02  0.98377  0.98838  1.00000  0.99650  0.99883
2.790000000e+02  0.98363  0.98848  1.00000  0.99625  0.99883
2.780000000e+02  0.98672  0.98859  1.00000  0.99927  0.99884
2.770000000e+02  0.98234  0.98869  1.00000  0.99473  0.99884
2.760000000e+02  0.98693  0.98878  1.00000  0.99928  0.99884
2.750000000e+02  0.98405  0.98885  1.00000  0.99630  0.99884
2.740000000e+02  0.97910  0.98892  1.00000  0.99123  0.99884
2.730000000e+02  0.96999  0.98895  1.00000  0.98197  0.99883
2.720000000e+02  0.98690  0.98905  1.00000  0.99899  0.99883
2.710000000e+02  0.98712  0.98913  1.00000  0.99915  0.99882
2.700000000e+02  0.98762  0.98918  1.00000  0.99960  0.99882
2.690000000e+02  0.98735  0.98922  1.00000  0.99929  0.99882
2.680000000e+02  0.98599  0.98920  1.00000  0.99794  0.99881
2.670000000e+02  0.97326  0.98891  1.00000  0.98535  0.99881
2.660000000e+02  0.98599  0.98796  1.00000  0.99920  0.99880
2.650000000e+02  0.98380  0.98928  1.00000  0.99566  0.99880
2.640000000e+02  0.96852  0.98953  1.00000  0.97995  0.99879
2.630000000e+02  0.98117  0.98965  1.00000  0.99263  0.99879
2.620000000e+02  0.98764  0.98975  1.00000  0.99908  0.99878
2.610000000e+02  0.98795  0.98982  1.00000  0.99933  0.99878
2.600000000e+02  0.98782  0.98989  1.00000  0.99914  0.99877
2.590000000e+02  0.97177  0.98993  1.00000  0.98287  0.99876
2.580000000e+02  0.98373  0.98994  1.00000  0.99496  0.99876
2.570000000e+02  0.98804  0.99001  1.00000  0.99926  0.99875
2.560000000e+02  0.98826  0.98989  1.00000  0.99961  0.99875
2.550000000e+02  0.98750  0.98913  1.00000  0.99961  0.99874
2.540000000e+02  0.98816  0.99005  1.00000  0.99936  0.99873
2.530000000e+02  0.98829  0.99028  1.00000  0.99926  0.99872
2.520000000e+02  0.98840  0.99040  1.00000  0.99926  0.99872
2.510000000e+02  0.98731  0.99048  1.00000  0.99808  0.99871
2.500000000e+02  0.95296  0.99056  1.00000  0.96330  0.99870
2.490000000e+02  0.98484  0.99062  1.00000  0.99547  0.99868
2.480000000e+02  0.96452  0.99068  1.00000  0.97489  0.99867
2.470000000e+02  0.98806  0.99074  1.00000  0.99864  0.99865
2.460000000e+02  0.98841  0.99079  1.00000  0.99896  0.99863
2.450000000e+02  0.98819  0.99080  1.00000  0.99877  0.99860
2.440000000e+02  0.97831  0.99077  1.00000  0.98886  0.99854
2.430000000e+02  0.97075  0.99064  1.00000  0.98144  0.99846
2.420000000e+02  0.96706  0.98951  1.00000  0.97903  0.99827
2.410000000e+02  0.98538  0.99010  1.00000  0.99772  0.99751
2.400000000e+02  0.98291  0.99081  1.00000  0.99762  0.99439
2.390000000e+02  0.96519  0.99097  1.00000  0.97707  0.99685
2.380000000e+02  0.98576  0.99104  1.00000  0.99680  0.99786
2.370000000e+02  0.96689  0.99110  1.00000  0.97780  0.99772
2.360000000e+02  0.96598  0.99114  1.00000  0.97756  0.99698
2.350000000e+02  0.98202  0.99118  1.00000  0.99682  0.99393
2.340000000e+02  0.96698  0.99121  1.00000  0.99908  0.97645
2.330000000e+02  0.98369  0.99123  1.00000  0.99924  0.99314
2.320000000e+02  0.98624  0.99126  1.00000  0.99805  0.99687
2.310000000e+02  0.97413  0.99129  1.00000  0.98490  0.99774
2.300000000e+02  0.98711  0.99131  1.00000  0.99769  0.99806
2.290000000e+02  0.98886  0.99131  1.00000  0.99931  0.99821
2.280000000e+02  0.98932  0.99127  1.00000  0.99974  0.99829
2.270000000e+02  0.98907  0.99105  1.00000  0.99967  0.99833
2.260000000e+02  0.98468  0.98969  1.00000  0.99657  0.99835
2.250000000e+02  0.98892  0.99096  1.00000  0.99957  0.99837
2.240000000e+02  0.98960  0.99137  1.00000  0.99984  0.99837
2.230000000e+02  0.98975  0.99149  1.00000  0.99987  0.99837
2.220000000e+02  0.98985  0.99156  1.00000  0.99990  0.99837
2.210000000e+02  0.98987  0.99161  1.00000  0.99988  0.99836
2.200000000e+02  0.98991  0.99166  1.00000  0.99988  0.99835
2.190000000e+02  0.98991  0.99169  1.00000  0.99985  0.99834
2.180000000e+02  0.98982  0.99173  1.00000  0.99974  0.99833
2.170000000e+02  0.98993  0.99176  1.00000  0.99982  0.99832
2.160000000e+02  0.98965  0.99179  1.00000  0.99954  0.99831
2.150000000e+02  0.98315  0.99180  1.00000  0.99298  0.99829
2.140000000e+02  0.98963  0.99181  1.00000  0.99954  0.99827
2.130000000e+02  0.98985  0.99181  1.00000  0.99978  0.99825
2.120000000e+02  0.98979  0.99180  1.00000  0.99975  0.99822
2.110000000e+02  0.98646  0.99177  1.00000  0.99644  0.99820
2.100000000e+02  0.98868  0.99172  1.00000  0.99875  0.99818
2.090000000e+02  0.98201  0.99170  1.00000  0.99207  0.99815
2.080000000e+02  0.98821  0.99161  1.00000  0.99843  0.99813
2.070000000e+02  0.98923  0.99148  1.00000  0.99962  0.99810
2.060000000e+02  0.98790  0.99139  1.00000  0.99841  0.99808
2.050000000e+02  0.98895  0.99107  1.00000  0.99981  0.99805
2.040000000e+02  0.98758  0.98969  1.00000  0.99984  0.99802
2.030000000e+02  0.98645  0.98869  1.00000  0.99973  0.99800
2.020000000e+02  0.98849  0.99059  1.00000  0.99991  0.99797
2.010000000e+02  0.98855  0.99069  1.00000  0.99989  0.99794
2.000000000e+02  0.98824  0.99056  1.00000  0.99974  0.99791
1.990000000e+02  0.98702  0.99031  1.00000  0.99879  0.99788
1.980000000e+02  0.98758  0.98996  1.00000  0.99974  0.99786
1.970000000e+02  0.98695  0.98950  1.00000  0.99959  0.99783
1.960000000e+02  0.98043  0.98890  1.00000  0.99363  0.99780
1.950000000e+02  0.97496  0.98805  1.00000  0.98895  0.99776
1.940000000e+02  0.98369  0.98662  1.00000  0.99929  0.99773
1.930000000e+02  0.98118  0.98576  1.00000  0.99764  0.99770
1.920000000e+02  0.98157  0.98407  1.00000  0.99979  0.99767
1.910000000e+02  0.97910  0.98159  1.00000  0.99982  0.99764
1.900000000e+02  0.97551  0.97796  1.00000  0.99989  0.99761
1.890000000e+02  0.96987  0.97236  1.00000  0.99986  0.99757
1.880000000e+02  0.96064  0.96322  1.00000  0.99978  0.99754
1.870000000e+02  0.94459  0.94721  1.00000  0.99972  0.99750
1.860000000e+02  0.91089  0.91376  1.00000  0.99938  0.99747
1.850000000e+02  0.81794  0.82356  1.00000  0.99558  0.99742
1.840000000e+02  0.55174  0.55972  1.00000  0.99042  0.99738
1.830000000e+02  0.37425  0.37539  1.00000  0.99953  0.99733
1.820000000e+02  0.78310  0.78545  1.00000  0.99974  0.99726
1.810000000e+02  0.88926  0.89186  1.00000  0.99989  0.99719
1.800000000e+02  0.93301  0.93587  1.00000  0.99982  0.99712
1.790000000e+02  0.95443  0.95738  1.00000  0.99987  0.99705
1.780000000e+02  0.96613  0.96913  1.00000  0.99992  0.99698
1.770000000e+02  0.97302  0.97615  1.00000  0.99989  0.99690
1.760000000e+02  0.97694  0.98065  1.00000  0.99938  0.99683
1.750000000e+02  0.97800  0.98368  1.00000  0.99747  0.99675
1.740000000e+02  0.98200  0.98583  1.00000  0.99944  0.99667
1.730000000e+02  0.98358  0.98741  1.00000  0.99953  0.99658
1.720000000e+02  0.98503  0.98861  1.00000  0.99988  0.99650
1.710000000e+02  0.98576  0.98954  1.00000  0.99976  0.99641
1.700000000e+02  0.98649  0.99028  1.00000  0.99985  0.99632
1.690000000e+02  0.98689  0.99087  1.00000  0.99975  0.99623
1.680000000e+02  0.98654  0.99136  1.00000  0.99900  0.99614
1.670000000e+02  0.98713  0.99177  1.00000  0.99928  0.99604
1.660000000e+02  0.97743  0.99211  1.00000  0.98922  0.99594
1.650000000e+02  0.98347  0.99240  1.00000  0.99514  0.99584
1.640000000e+02  0.98802  0.99266  1.00000  0.99959  0.99574
1.630000000e+02  0.98837  0.99288  1.00000  0.99983  0.99563
1.620000000e+02  0.98853  0.99307  1.00000  0.99991  0.99552
1.610000000e+02  0.98861  0.99324  1.00000  0.99993  0.99541
1.600000000e+02  0.98865  0.99339  1.00000  0.99993  0.99529
1.590000000e+02  0.98866  0.99353  1.00000  0.99992  0.99518
1.580000000e+02  0.98869  0.99366  1.00000  0.99994  0.99506
1.570000000e+02  0.98864  0.99377  1.00000  0.99991  0.99493
1.560000000e+02  0.98841  0.99387  1.00000  0.99970  0.99481
1.550000000e+02  0.98851  0.99397  1.00000  0.99983  0.99468
1.540000000e+02  0.98588  0.99405  1.00000  0.99721  0.99454
1.530000000e+02  0.98837  0.99413  1.00000  0.99981  0.99440
1.520000000e+02  0.98828  0.99413  1.00000  0.99993  0.99418
1.510000000e+02  0.98813  0.99420  1.00000  0.99994  0.99395
1.500000000e+02  0.98789  0.99427  1.00000  0.99988  0.99370
1.490000000e+02  0.98613  0.99432  1.00000  0.99832  0.99343
1.480000000e+02  0.98732  0.99436  1.00000  0.99977  0.99314
1.470000000e+02  0.98717  0.99440  1.00000  0.99990  0.99283
1.460000000e+02  0.98675  0.99443  1.00000  0.99978  0.99249
1.450000000e+02  0.98335  0.99444  1.00000  0.99670  0.99212
1.440000000e+02  0.98557  0.99417  1.00000  0.99963  0.99171
1.430000000e+02  0.98502  0.99444  1.00000  0.99924  0.99127
1.420000000e+02  0.97710  0.99460  1.00000  0.99155  0.99078
1.410000000e+02  0.98447  0.99466  1.00000  0.99951  0.99023
1.400000000e+02  0.98417  0.99469  1.00000  0.99980  0.98962
1.390000000e+02  0.98350  0.99463  1.00000  0.99988  0.98893
1.380000000e+02  0.98281  0.99470  1.00000  0.99990  0.98815
1.370000000e+02  0.98102  0.99483  1.00000  0.99884  0.98725
1.360000000e+02  0.98101  0.99489  1.00000  0.99983  0.98622
1.350000000e+02  0.97997  0.99494  1.00000  0.99994  0.98501
1.340000000e+02  0.97859  0.99498  1.00000  0.99994  0.98358
1.330000000e+02  0.97689  0.99503  1.00000  0.99991  0.98186
1.320000000e+02  0.97479  0.99507  1.00000  0.99983  0.97978
1.310000000e+02  0.97225  0.99511  1.00000  0.99981  0.97722
1.300000000e+02  0.96919  0.99515  1.00000  0.99993  0.97398
1.290000000e+02  0.96497  0.99519  1.00000  0.99981  0.96982
1.280000000e+02  0.95860  0.99523  1.00000  0.99884  0.96432
1.270000000e+02  0.95211  0.99526  1.00000  0.99980  0.95684
1.260000000e+02  0.94077  0.99530  1.00000  0.99891  0.94624
1.250000000e+02  0.92199  0.99534  1.00000  0.99546  0.93055
1.240000000e+02  0.89581  0.99537  1.00000  0.99339  0.90597
1.230000000e+02  0.85967  0.99540  1.00000  0.99918  0.86436
1.220000000e+02  0.78334  0.99538  1.00000  0.99986  0.78708
1.210000000e+02  0.62566  0.99517  1.00000  0.99991  0.62874
1.200000000e+02  0.30713  0.99534  1.00000  0.99986  0.30862
1.190000000e+02  0.01935  0.99547  1.00000  0.99942  0.01945
1.180000000e+02  0.12365  0.99551  1.00000  0.99910  0.12424
1.170000000e+02  0.48863  0.99555  1.00000  0.99991  0.49085
1.160000000e+02  0.71823  0.99557  1.00000  0.99991  0.72148
1.150000000e+02  0.82543  0.99560  1.00000  0.99924  0.82971
1.140000000e+02  0.88088  0.99562  1.00000  0.99988  0.88486
1.130000000e+02  0.91178  0.99564  1.00000  0.99985  0.91591
1.120000000e+02  0.93048  0.99567  1.00000  0.99979  0.93472
1.110000000e+02  0.93851  0.99569  1.00000  0.99549  0.94685
1.100000000e+02  0.94981  0.99571  1.00000  0.99882  0.95502
1.090000000e+02  0.95628  0.99573  1.00000  0.99966  0.96070
1.080000000e+02  0.96057  0.99575  1.00000  0.99992  0.96474
1.070000000e+02  0.96350  0.99577  1.00000  0.99995  0.96764
1.060000000e+02  0.96562  0.99580  1.00000  0.99995  0.96974
1.050000000e+02  0.96711  0.99582  1.00000  0.99992  0.97125
1.040000000e+02  0.96735  0.99584  1.00000  0.99905  0.97232
1.030000000e+02  0.96880  0.99586  1.00000  0.99978  0.97303
1.020000000e+02  0.96646  0.99588  1.00000  0.99691  0.97347
1.010000000e+02  0.96918  0.99590  1.00000  0.99946  0.97369
1.000000000e+02  0.96964  0.99592  1.00000  0.99989  0.97372
9.900000000e+01  0.96952  0.99594  1.00000  0.99988  0.97359
9.800000000e+01  0.96931  0.99596  1.00000  0.99992  0.97332
9.700000000e+01  0.96883  0.99598  1.00000  0.99980  0.97293
9.600000000e+01  0.96686  0.99600  1.00000  0.99826  0.97243
9.500000000e+01  0.96782  0.99602  1.00000  0.99985  0.97183
9.400000000e+01  0.96597  0.99604  1.00000  0.99864  0.97113
9.300000000e+01  0.96530  0.99606  1.00000  0.99989  0.96923
9.200000000e+01  0.95782  0.99608  1.00000  0.99995  0.96164
9.100000000e+01  0.96294  0.99609  1.00000  0.99996  0.96675
9.000000000e+01  0.96187  0.99611  1.00000  0.99998  0.96564
8.900000000e+01  0.95991  0.99612  1.00000  0.99998  0.96367
8.800000000e+01  0.95767  0.99611  1.00000  0.99999  0.96143
8.700000000e+01  0.95520  0.99615  1.00000  0.99999  0.95890
8.600000000e+01  0.95237  0.99617  1.00000  0.99999  0.95604
8.500000000e+01  0.94915  0.99618  1.00000  0.99999  0.95280
8.400000000e+01  0.94549  0.99620  1.00000  0.99999  0.94912
8.300000000e+01  0.94132  0.99620  1.00000  0.99999  0.94492
8.200000000e+01  0.93650  0.99618  1.00000  0.99999  0.94010
8.100000000e+01  0.93074  0.99594  1.00000  0.99997  0.93457
8.000000000e+01  0.92450  0.99607  1.00000  0.99998  0.92816
7.900000000e+01  0.91717  0.99624  1.00000  0.99994  0.92069
7.800000000e+01  0.90824  0.99628  1.00000  0.99968  0.91192
7.700000000e+01  0.89759  0.99631  1.00000  0.99931  0.90154
7.600000000e+01  0.88541  0.99633  1.00000  0.99948  0.88914
7.500000000e+01  0.87094  0.99635  1.00000  0.99996  0.87416
7.400000000e+01  0.85270  0.99636  1.00000  0.99998  0.85583
7.300000000e+01  0.83005  0.99638  1.00000  0.99998  0.83308
7.200000000e+01  0.80143  0.99639  1.00000  0.99998  0.80434
7.100000000e+01  0.76449  0.99641  1.00000  0.99998  0.76726
7.000000000e+01  0.71530  0.99642  1.00000  0.99998  0.71788
6.900000000e+01  0.64666  0.99643  1.00000  0.99996  0.64899
6.800000000e+01  0.54330  0.99642  1.00000  0.99980  0.54536
6.700000000e+01  0.38089  0.99645  1.00000  0.99919  0.38259
6.600000000e+01  0.17031  0.99648  1.00000  0.99984  0.17094
6.500000000e+01  0.03035  0.99648  1.00000  0.99970  0.03046
6.400000000e+01  0.00150  0.99649  1.00000  0.99997  0.00151
6.300000000e+01  0.00001  0.99652  1.00000  0.99993  0.00001
6.200000000e+01  0.00000  0.99652  1.00000  0.99969  0.00000
6.100000000e+01  0.00000  0.99650  1.00000  0.99990  0.00000
6.000000000e+01  0.00000  0.99656  1.00000  0.99998  0.00000
5.900000000e+01  0.00000  0.99658  1.00000  0.99997  0.00000
5.800000000e+01  0.00000  0.99660  1.00000  0.99988  0.00000
5.700000000e+01  0.00000  0.99661  1.00000  0.99998  0.00000
5.600000000e+01  0.00025  0.99662  1.00000  0.99997  0.00025
5.500000000e+01  0.01133  0.99663  1.00000  0.99989  0.01136
5.400000000e+01  0.10956  0.99665  1.00000  0.99977  0.10997
5.300000000e+01  0.31581  0.99666  1.00000  0.99995  0.31688
5.200000000e+01  0.49667  0.99666  1.00000  0.99988  0.49839
5.100000000e+01  0.60964  0.99665  1.00000  0.99995  0.61171
5.000000000e+01  0.67724  0.99660  1.00000  0.99994  0.67959
4.900000000e+01  0.71835  0.99669  1.00000  0.99999  0.72074
4.800000000e+01  0.74097  0.99672  1.00000  0.99999  0.74342
4.700000000e+01  0.74833  0.99673  1.00000  0.99999  0.75079
4.600000000e+01  0.76487  0.99675  1.00000  0.99999  0.76737
4.500000000e+01  0.86839  0.99677  1.00000  0.99995  0.87125
4.400000000e+01  0.88454  0.99678  1.00000  0.99987  0.88751
4.300000000e+01  0.89747  0.99679  1.00000  0.99991  0.90044
4.200000000e+01  0.90832  0.99680  1.00000  0.99999  0.91125
4.100000000e+01  0.91744  0.99681  1.00000  0.99999  0.92038
4.000000000e+01  0.92521  0.99682  1.00000  0.99999  0.92816
3.900000000e+01  0.93187  0.99683  1.00000  0.99998  0.93485
3.800000000e+01  0.93756  0.99684  1.00000  0.99988  0.94064
3.700000000e+01  0.94270  0.99685  1.00000  0.99998  0.94569
3.600000000e+01  0.94708  0.99686  1.00000  0.99994  0.95011
3.500000000e+01  0.95103  0.99687  1.00000  0.99999  0.95402
3.400000000e+01  0.95449  0.99688  1.00000  0.99999  0.95748
3.300000000e+01  0.95757  0.99689  1.00000  0.99999  0.96056
3.200000000e+01  0.96032  0.99690  1.00000  0.99999  0.96332
3.100000000e+01  0.96277  0.99690  1.00000  0.99997  0.96579
3.000000000e+01  0.96490  0.99690  1.00000  0.99987  0.96803
2.900000000e+01  0.96699  0.99690  1.00000  0.99995  0.97005
2.800000000e+01  0.96884  0.99689  1.00000  0.99999  0.97188
2.700000000e+01  0.97048  0.99686  1.00000  0.99999  0.97355
2.600000000e+01  0.97193  0.99681  1.00000  0.99997  0.97507
2.500000000e+01  0.97322  0.99669  1.00000  0.99999  0.97647
2.400000000e+01  0.97416  0.99638  1.00000  0.99996  0.97775
2.300000000e+01  0.97417  0.99515  1.00000  0.99999  0.97892
2.200000000e+01  0.97304  0.99300  1.00000  1.00000  0.97991
2.100000000e+01  0.97684  0.99595  1.00000  1.00000  0.98082
2.000000000e+01  0.97834  0.99659  1.00000  1.00000  0.98169
1.900000000e+01  0.97939  0.99682  1.00000  1.00000  0.98252
1.800000000e+01  0.98029  0.99693  1.00000  1.00000  0.98331
1.700000000e+01  0.98111  0.99699  1.00000  1.00000  0.98407
1.600000000e+01  0.98186  0.99703  1.00000  0.99999  0.98479
1.500000000e+01  0.98257  0.99706  1.00000  0.99999  0.98548
1.400000000e+01  0.98326  0.99708  1.00000  1.00000  0.98614
1.300000000e+01  0.98391  0.99710  1.00000  1.00000  0.98677
1.200000000e+01  0.98452  0.99711  1.00000  1.00000  0.98737
1.100000000e+01  0.98505  0.99713  1.00000  0.99998  0.98791
1.000000000e+01  0.98552  0.99714  1.00000  0.99998  0.98837
9.000000000e+00  0.98598  0.99715  1.00000  0.99999  0.98880
8.000000000e+00  0.98642  0.99717  1.00000  1.00000  0.98922
7.000000000e+00  0.98684  0.99718  1.00000  1.00000  0.98963
6.000000000e+00  0.98723  0.99719  1.00000  1.00000  0.99002
5.000000000e+00  0.98760  0.99720  1.00000  1.00000  0.99037
4.000000000e+00  0.98794  0.99721  1.00000  1.00000  0.99070
3.000000000e+00  1.28193  1.29390  1.29751  1.29751  1.28551
